TRANSMISSION%TAU_TOTAL = (
  0.706946E-007  0.535383       0.142892       0.605826E-003  0.162010E-003  0.184980E-021  0.271250E-006  0.171565E-004  0.184726E-021  0.184735E-021
  0.186370E-021  0.185445E-021  0.185556E-021  0.185967E-021  0.109646E-002  0.239204E-001  0.221092       0.806821E-001  0.112416E-008  0.314611E-001
  0.807148       0.814551       0.457063       0.320507       0.520620E-007  0.567658       0.778643E-001  0.671223E-003  0.467081E-004  0.185808E-021
  0.158853E-006  0.198113E-004  0.185606E-021  0.185614E-021  0.187025E-021  0.186233E-021  0.186341E-021  0.186744E-021  0.897423E-003  0.223369E-001
  0.193045       0.535457E-001  0.161661E-010  0.158774E-001  0.780903       0.793461       0.437087       0.308663       0.742978E-005  0.851595     
  0.803982E-001  0.195402E-002  0.114923E-003  0.554776E-024  0.189818E-002  0.165410E-004  0.183390E-021  0.183401E-021  0.185294E-021  0.184198E-021
  0.184332E-021  0.184831E-021  0.964341E-002  0.184944       0.314209       0.532860E-001  0.155393E-009  0.200492E-001  0.785032       0.805533     
  0.570219       0.541746       0.252502E-006  0.637974       0.599431E-001  0.700281E-003  0.129936E-004  0.187649E-021  0.842489E-006  0.336419E-004
  0.187503E-021  0.187509E-021  0.188558E-021  0.187946E-021  0.188031E-021  0.188356E-021  0.125928E-002  0.373438E-001  0.194471       0.371636E-001
  0.172150E-012  0.961795E-002  0.764457       0.780616       0.440983       0.321041       0.563129E-004  0.967046       0.156567       0.369505E-001
  0.223562E-002  0.390856E-007  0.103443       0.139526E-003  0.191084E-021  0.191086E-021  0.191444E-021  0.191198E-021  0.191232E-021  0.191373E-021
  0.698433E-001  0.455274       0.491788       0.133351       0.127048E-006  0.928315E-001  0.880606       0.895439       0.726171       0.808885     
  0.398259E-006  0.738228       0.614529E-001  0.487266E-003  0.961330E-006  0.189623E-021  0.178873E-005  0.442411E-004  0.189541E-021  0.189545E-021
  0.190207E-021  0.189831E-021  0.189882E-021  0.190079E-021  0.100361E-002  0.402847E-001  0.167892       0.208726E-001  0.725502E-014  0.321862E-002
  0.730823       0.755016       0.432175       0.345852     
 )
TRANSMISSION%TAU_LEVELS = (
   1.00000        1.00000        1.00000        1.00000        1.00000        1.00000        1.00000        1.00000        1.00000        1.00000     
   1.00000        1.00000        1.00000        1.00000        1.00000        1.00000        1.00000        1.00000        1.00000        1.00000     
   1.00000        1.00000        1.00000        1.00000        1.00000        1.00000        1.00000        1.00000        1.00000        1.00000     
   1.00000        1.00000        1.00000        1.00000        1.00000        1.00000        1.00000        1.00000        1.00000        1.00000     
   1.00000        1.00000        1.00000        1.00000        1.00000        1.00000        1.00000        1.00000        1.00000        1.00000     
   1.00000        1.00000        1.00000        1.00000        1.00000        1.00000        1.00000        1.00000        1.00000        1.00000     
   1.00000        1.00000        1.00000        1.00000        1.00000        1.00000        1.00000        1.00000        1.00000        1.00000     
   1.00000        1.00000        1.00000        1.00000        1.00000        1.00000        1.00000        1.00000        1.00000        1.00000     
   1.00000        1.00000        1.00000        1.00000        1.00000        1.00000        1.00000        1.00000        1.00000        1.00000     
   1.00000        1.00000        1.00000        1.00000        1.00000        1.00000        1.00000        1.00000        1.00000        1.00000     
   1.00000        1.00000        1.00000        1.00000        1.00000        1.00000        1.00000        1.00000        1.00000        1.00000     
   1.00000        1.00000        1.00000        1.00000        1.00000        1.00000        1.00000        1.00000        1.00000        1.00000     
   1.00000        1.00000        1.00000        1.00000        1.00000        1.00000        1.00000        1.00000        1.00000        1.00000     
   1.00000        1.00000        1.00000        1.00000        1.00000        1.00000        1.00000        1.00000        1.00000        1.00000     
   1.00000        1.00000        1.00000        1.00000     
 
  0.999297        1.00000       0.999813       0.999998       0.999968       0.999998       0.999995       0.999984       0.999797       0.999989     
  0.999951       0.999861       0.998693       0.999976       0.999859       0.999839       0.999692       0.999860       0.993924       0.999999     
   1.00000        1.00000        1.00000        1.00000       0.999439        1.00000       0.999816       0.999998       0.999969       0.999999     
  0.999996       0.999991       0.999851       0.999992       0.999960       0.999903       0.998900       0.999982       0.999869       0.999839     
  0.999704       0.999882       0.994393       0.999999        1.00000        1.00000        1.00000        1.00000       0.999243        1.00000     
  0.999848       0.999998       0.999976       0.999998       0.999996       0.999987       0.999867       0.999993       0.999971       0.999908     
  0.999253       0.999986       0.999891       0.999887       0.999768       0.999877       0.994566       0.999996        1.00000        1.00000     
   1.00000        1.00000       0.999543        1.00000       0.999826       0.999998       0.999973       0.999999       0.999997       0.999994     
  0.999889       0.999994       0.999968       0.999931       0.999087       0.999986       0.999884       0.999849       0.999731       0.999903     
  0.994893        1.00000        1.00000        1.00000        1.00000        1.00000       0.999336        1.00000       0.999879       0.999999     
  0.999985       0.999998       0.999997       0.999989       0.999912       0.999995       0.999982       0.999938       0.999559       0.999991     
  0.999930       0.999934       0.999858       0.999914       0.995862       0.999994        1.00000        1.00000        1.00000        1.00000     
  0.999296        1.00000       0.999829       0.999998       0.999972       0.999999       0.999996       0.999989       0.999858       0.999992     
  0.999965       0.999904       0.999088       0.999984       0.999875       0.999859       0.999724       0.999871       0.994211       0.999999     
   1.00000        1.00000        1.00000        1.00000     
 
  0.998088        1.00000       0.999026       0.999992       0.999865       0.999981       0.999972       0.999865       0.998943       0.999937     
  0.999795       0.999186       0.994780       0.999869       0.999443       0.999466       0.998967       0.999423       0.984832       0.999958     
   1.00000        1.00000       0.999999        1.00000       0.998328        1.00000       0.999146       0.999993       0.999880       0.999988     
  0.999978       0.999918       0.999245       0.999956       0.999840       0.999444       0.995834       0.999908       0.999501       0.999486     
  0.999032       0.999505       0.986001       0.999975        1.00000        1.00000       0.999999        1.00000       0.998197        1.00000     
  0.999368       0.999994       0.999909       0.999988       0.999980       0.999915       0.999368       0.999965       0.999878       0.999531     
  0.996949       0.999930       0.999596       0.999628       0.999241       0.999540       0.986920       0.999955        1.00000        1.00000     
  0.999999        1.00000       0.998600        1.00000       0.999388       0.999994       0.999900       0.999994       0.999984       0.999954     
  0.999468       0.999969       0.999876       0.999624       0.996702       0.999935       0.999580       0.999534       0.999145       0.999603     
  0.987501       0.999989        1.00000        1.00000       0.999999        1.00000       0.998456        1.00000       0.999554       0.999996     
  0.999948       0.999992       0.999987       0.999941       0.999604       0.999979       0.999927       0.999710       0.998222       0.999959     
  0.999759       0.999794       0.999562       0.999705       0.990118       0.999955        1.00000        1.00000        1.00000        1.00000     
  0.998382        1.00000       0.999397       0.999994       0.999904       0.999991       0.999982       0.999938       0.999398       0.999966     
  0.999872       0.999561       0.996714       0.999929       0.999580       0.999570       0.999166       0.999554       0.987147       0.999982     
   1.00000        1.00000       0.999999        1.00000     
 
  0.996604        1.00000       0.995921       0.999977       0.999599       0.999915       0.999894       0.999420       0.997296       0.999817     
  0.999586       0.997687       0.989692       0.999616       0.998615       0.998922       0.997971       0.998641       0.974132       0.999720     
   1.00000       0.999999       0.999998       0.999999       0.996904        1.00000       0.996513       0.999981       0.999649       0.999942     
  0.999916       0.999603       0.997892       0.999864       0.999649       0.998259       0.991185       0.999717       0.998736       0.998948     
  0.998045       0.998750       0.975856       0.999781        1.00000       0.999999       0.999998       0.999999       0.996995        1.00000     
  0.997373       0.999985       0.999732       0.999952       0.999932       0.999668       0.998236       0.999892       0.999709       0.998576     
  0.992835       0.999783       0.998968       0.999180       0.998383       0.998890       0.977504       0.999782        1.00000        1.00000     
  0.999999       0.999999       0.997287        1.00000       0.997538       0.999985       0.999709       0.999963       0.999937       0.999742     
  0.998384       0.999899       0.999707       0.998711       0.992558       0.999790       0.998906       0.999015       0.998192       0.998918     
  0.978199       0.999860        1.00000        1.00000       0.999998       0.999999       0.997517        1.00000       0.998365       0.999991     
  0.999851       0.999970       0.999960       0.999791       0.998844       0.999934       0.999805       0.999104       0.995273       0.999872     
  0.999379       0.999523       0.999011       0.999288       0.982391       0.999837        1.00000        1.00000       0.999999        1.00000     
  0.997266        1.00000       0.997634       0.999985       0.999728       0.999962       0.999940       0.999736       0.998299       0.999893     
  0.999700       0.998622       0.992472       0.999778       0.998927       0.999045       0.998211       0.998876       0.978448       0.999882     
   1.00000        1.00000       0.999998       0.999999     
 
  0.994382       0.999999       0.987916       0.999939       0.999013       0.999761       0.999702       0.998433       0.995231       0.999647     
  0.999412       0.995782       0.985503       0.999202       0.997308       0.998357       0.997039       0.997729       0.960177       0.998998     
  0.999999       0.999999       0.999996       0.999997       0.994716       0.999999       0.989807       0.999947       0.999116       0.999811     
  0.999743       0.998749       0.995897       0.999705       0.999459       0.996407       0.986590       0.999359       0.997460       0.998345     
  0.997045       0.997768       0.961778       0.999036       0.999999       0.999999       0.999996       0.999997       0.995234       0.999999     
  0.991215       0.999962       0.999311       0.999862       0.999806       0.999064       0.996541       0.999762       0.999524       0.997003     
  0.988318       0.999502       0.997891       0.998627       0.997431       0.998026       0.965506       0.999306       0.999999       0.999999     
  0.999997       0.999998       0.995309       0.999999       0.992434       0.999958       0.999266       0.999865       0.999800       0.999089     
  0.996621       0.999765       0.999518       0.997084       0.988020       0.999502       0.997742       0.998392       0.997150       0.997919     
  0.965177       0.999239       0.999999       0.999999       0.999997       0.999998       0.996297        1.00000       0.994737       0.999978     
  0.999615       0.999919       0.999891       0.999446       0.997590       0.999848       0.999640       0.998002       0.991238       0.999696     
  0.998702       0.999141       0.998274       0.998699       0.973087       0.999595        1.00000       0.999999       0.999998       0.999999     
  0.995518        1.00000       0.992102       0.999963       0.999296       0.999874       0.999818       0.999142       0.996537       0.999754     
  0.999510       0.996949       0.987843       0.999468       0.997746       0.998344       0.997084       0.997842       0.966673       0.999482     
  0.999999       0.999999       0.999997       0.999998     
 
  0.990956       0.999998       0.973800       0.999856       0.997859       0.999500       0.999323       0.996872       0.992969       0.999468     
  0.999271       0.994077       0.982191       0.998659       0.995508       0.997840       0.996285       0.996823       0.942926       0.997565     
  0.999998       0.999997       0.999990       0.999993       0.991185       0.999998       0.977035       0.999867       0.998032       0.999552     
  0.999370       0.997184       0.993540       0.999515       0.999303       0.994520       0.982881       0.998832       0.995640       0.997786     
  0.996233       0.996768       0.943303       0.997342       0.999998       0.999998       0.999992       0.999994       0.992502       0.999999     
  0.978347       0.999909       0.998440       0.999691       0.999541       0.997972       0.994548       0.999595       0.999368       0.995232     
  0.984540       0.999070       0.996302       0.998090       0.996618       0.997143       0.950434       0.998326       0.999998       0.999998     
  0.999994       0.999995       0.992054       0.999998       0.981974       0.999893       0.998331       0.999648       0.999482       0.997740     
  0.994376       0.999582       0.999354       0.995160       0.984072       0.999037       0.996003       0.997778       0.996255       0.996839     
  0.947126       0.997639       0.999998       0.999998       0.999993       0.999995       0.994517       0.999999       0.986186       0.999951     
  0.999094       0.999824       0.999744       0.998813       0.995993       0.999717       0.999476       0.996492       0.987214       0.999397     
  0.997623       0.998719       0.997525       0.998057       0.961756       0.999217       0.999999       0.999999       0.999996       0.999997     
  0.992445       0.999999       0.979222       0.999903       0.998343       0.999664       0.999515       0.997823       0.994250       0.999563     
  0.999346       0.994961       0.983907       0.998956       0.995893       0.997621       0.996085       0.996668       0.949696       0.998275     
  0.999998       0.999998       0.999993       0.999995     
 
  0.985934       0.999996       0.954970       0.999705       0.995688       0.999153       0.998671       0.994941       0.990628       0.999305     
  0.999122       0.992723       0.978963       0.998037       0.993224       0.997366       0.995665       0.995899       0.922711       0.995847     
  0.999996       0.999995       0.999977       0.999987       0.985802       0.999996       0.958662       0.999709       0.995930       0.999172     
  0.998693       0.995082       0.991020       0.999335       0.999149       0.993002       0.979507       0.998187       0.993285       0.997271     
  0.995567       0.995743       0.921237       0.995197       0.999996       0.999995       0.999979       0.999988       0.988405       0.999997     
  0.959573       0.999802       0.996695       0.999443       0.999053       0.996462       0.992397       0.999423       0.999222       0.993674     
  0.981167       0.998500       0.994150       0.997566       0.995925       0.996238       0.932887       0.997048       0.999996       0.999996     
  0.999983       0.999991       0.986772       0.999996       0.965314       0.999752       0.996436       0.999287       0.998856       0.995683     
  0.991813       0.999390       0.999200       0.993468       0.980587       0.998410       0.993653       0.997191       0.995512       0.995713     
  0.924422       0.995278       0.999996       0.999996       0.999982       0.999990       0.991950       0.999999       0.971095       0.999893     
  0.997994       0.999686       0.999467       0.997915       0.994276       0.999563       0.999332       0.994940       0.983744       0.998961     
  0.996056       0.998278       0.996839       0.997402       0.948833       0.998762       0.999998       0.999998       0.999991       0.999994     
  0.987264       0.999997       0.959066       0.999766       0.996383       0.999299       0.998895       0.995747       0.991626       0.999369     
  0.999190       0.993272       0.980376       0.998272       0.993313       0.996932       0.995273       0.995452       0.927823       0.996207     
  0.999996       0.999996       0.999983       0.999989     
 
  0.979174       0.999992       0.932720       0.999450       0.991983       0.998752       0.997645       0.992861       0.988288       0.999151     
  0.998925       0.991519       0.975075       0.997388       0.990482       0.996946       0.995148       0.994905       0.898286       0.994330     
  0.999992       0.999991       0.999948       0.999977       0.978392       0.999991       0.936440       0.999439       0.992180       0.998708     
  0.997590       0.992732       0.988457       0.999166       0.998951       0.991692       0.975553       0.997486       0.990413       0.996810     
  0.995014       0.994656       0.894685       0.993319       0.999992       0.999992       0.999950       0.999978       0.982729       0.999994     
  0.938039       0.999604       0.993441       0.999141       0.998231       0.994715       0.990142       0.999260       0.999037       0.992348     
  0.977293       0.997827       0.991488       0.997083       0.995352       0.995294       0.911929       0.995921       0.999993       0.999993     
  0.999960       0.999982       0.978871       0.999992       0.943563       0.999482       0.992814       0.998785       0.997734       0.993120     
  0.989047       0.999205       0.999007       0.992024       0.976674       0.997672       0.990696       0.996658       0.994895       0.994509     
  0.895755       0.992898       0.999993       0.999992       0.999957       0.999981       0.988223       0.999997       0.952007       0.999772     
  0.995768       0.999506       0.998961       0.996784       0.992435       0.999406       0.999172       0.993546       0.980182       0.998398     
  0.993983       0.997854       0.996257       0.996716       0.933302       0.998270       0.999996       0.999996       0.999976       0.999989     
  0.979427       0.999993       0.935072       0.999495       0.992470       0.998806       0.997763       0.993215       0.988824       0.999184     
  0.998983       0.991835       0.976124       0.997474       0.989996       0.996278       0.994588       0.994147       0.900209       0.994172     
  0.999992       0.999992       0.999955       0.999978     
 
  0.970505       0.999981       0.904785       0.999018       0.986463       0.998304       0.996158       0.990669       0.985823       0.998981     
  0.998634       0.990187       0.969744       0.996725       0.987263       0.996540       0.994643       0.993602       0.866603       0.993032     
